#BEGIN
# name ARC_Krypton
# System WAVE
# Unit um
# StdOfRest Source
# SourceVRF Topocentric
# SourceVel 0.0
#END

* Krypton line list from FIGARO, removed line strength values.
* Current version August 1992
* ref Wavelengths Standards in the Infrared K. N. Rao et al 1966
* UNITS  = MICRONS
* MEDIUM = VACUUM

 1.08779 1.08779
 1.11902 1.11902
 1.12608 1.12608
 1.12622 1.12622
 1.14606 1.14606
 1.17956 1.17956
 1.18226 1.18226
 1.20004 1.20004
 1.20805 1.20805
 1.21211 1.21211
 1.21268 1.21268
 1.22079 1.22079
 1.27589 1.27589
 1.28019 1.28019
 1.28654 1.28654
 1.28824 1.28824
 1.29888 1.29888
 1.30259 1.30259
 1.31810 1.31810
 1.32443 1.32443
 1.33415 1.33415
 1.36379 1.36379
 1.36621 1.36621
 1.37148 1.37148
 1.37426 1.37426
 1.38261 1.38261
 1.38366 1.38366
 1.38866 1.38866
 1.39276 1.39276
 1.39427 1.39427
 1.39778 1.39778
 1.41081 1.41081
 1.41601 1.41601
 1.43445 1.43445
 1.43513 1.43513
 1.44062 1.44062
 1.44730 1.44730
 1.47385 1.47385
 1.47667 1.47667
 1.47695 1.47695
 1.49660 1.49660
 1.50094 1.50094
 1.52137 1.52137
 1.52438 1.52438
 1.53307 1.53307
 1.53392 1.53392
 1.53762 1.53762
 1.54782 1.54782
 1.56397 1.56397
 1.56853 1.56853
 1.58244 1.58244
 1.58951 1.58951
 1.63196 1.63196
 1.64703 1.64703
 1.65775 1.65775
 1.67311 1.67311
 1.67897 1.67897
 1.68581 1.68581
 1.68951 1.68951
 1.69014 1.69014
 1.69404 1.69404
 1.70746 1.70746
 1.71034 1.71034
 1.72354 1.72354
 1.73724 1.73724
 1.74092 1.74092
 1.76216 1.76216
 1.78476 1.78476
 1.80071 1.80071
 1.81043 1.81043
 1.81723 1.81723
 1.81900 1.81900
 1.84234 1.84234
 1.85860 1.85860
 1.87015 1.87015
 1.87901 1.87901
 1.87929 1.87929
 1.88028 1.88028
 2.02153 2.02153
 2.04295 2.04295
 2.11713 2.11713
 2.19085 2.19085
 2.24918 2.24918
 2.33467 2.33467
 2.35088 2.35088
 2.42672 2.42672
 2.42988 2.42988
 2.47752 2.47752
 2.52407 2.52407
 2.67684 2.67684
 2.69076 2.69076
 2.86182 2.86182
 2.86633 2.86633
 2.87774 2.87774
 2.88302 2.88302
 2.92274 2.92274
 2.92445 2.92445
 3.06718 3.06718
 3.09875 3.09875
 3.92945 3.92945
 3.95680 3.95680
 3.95992 3.95992
 3.96004 3.96004
 3.99657 3.99657
 3.99775 3.99775
 4.03171 4.03171
 4.06965 4.06965
